#Wavelength(nm)	T%	
1100		0.000472847
1099.5		0.000105844
1099		0.001128017
1098.5		0.00013572
1098		2.75E-05
1097.5		0.000408153
1097		-0.000248373
1096.5		0.000107672
1096		-0.000343014
1095.5		0.000670618
1095		9.59E-05
1094.5		0.000303993
1094		6.34E-05
1093.5		1.03E-06
1093		0.000456386
1092.5		0.000648197
1092		-0.000235031
1091.5		9.14E-05
1091		-0.00017708
1090.5		-0.000278534
1090		-4.75E-05
1089.5		-0.000135554
1089		0.000157647
1088.5		-0.000410235
1088		0.000371443
1087.5		0.000453601
1087		-0.00021327
1086.5		-0.000597327
1086		2.00E-05
1085.5		-4.41E-05
1085		0.001059879
1084.5		-0.00032049
1084		-0.000424558
1083.5		0.000474652
1083		-0.000450962
1082.5		0.000495863
1082		0.000487652
1081.5		-6.78E-05
1081		-6.06E-05
1080.5		0.000801374
1080		6.89E-05
1079.5		0.000108822
1079		0.000234684
1078.5		1.84E-05
1078		0.000844722
1077.5		-0.000640374
1077		6.11E-05
1076.5		-0.00014146
1076		0.000536085
1075.5		-9.72E-06
1075		-0.000340775
1074.5		0.000862535
1074		-0.000140362
1073.5		-0.000158839
1073		0.000462016
1072.5		0.000360804
1072		-5.01E-05
1071.5		7.70E-05
1071		-0.000101056
1070.5		0.000197989
1070		0.000335279
1069.5		0.000217229
1069		0.000722538
1068.5		0.000473541
1068		-3.54E-05
1067.5		-0.000200766
1067		0.000559812
1066.5		-0.000330705
1066		0.00067408
1065.5		7.91E-05
1065		0.000472988
1064.5		0.00017941
1064		-0.000205741
1063.5		-0.000453674
1063		9.78E-05
1062.5		-3.00E-05
1062		-0.000128265
1061.5		0.000291376
1061		-0.000189625
1060.5		0.00097922
1060		0.000583739
1059.5		-0.000353693
1059		0.000334746
1058.5		-0.000165428
1058		0.000102676
1057.5		0.000449395
1057		9.21E-05
1056.5		0.000458128
1056		-0.000112926
1055.5		-0.000718265
1055		-0.000582141
1054.5		-0.000645858
1054		-0.000191335
1053.5		-0.000473168
1053		0.000821843
1052.5		-0.000234098
1052		-0.000232652
1051.5		0.000536256
1051		-0.0004423
1050.5		0.000306894
1050		9.07E-05
1049.5		-6.02E-06
1049		-3.47E-05
1048.5		-0.000162848
1048		0.000472046
1047.5		-0.000786167
1047		-0.000108478
1046.5		-0.000235298
1046		-0.000392958
1045.5		0.000125477
1045		0.000191728
1044.5		-0.000110479
1044		-0.000939004
1043.5		0.000153014
1043		-2.27E-05
1042.5		0.000581144
1042		-0.000372073
1041.5		-0.000423333
1041		0.000750481
1040.5		0.000288182
1040		0.000162311
1039.5		-0.000233228
1039		-8.14E-05
1038.5		0.000265089
1038		-9.80E-05
1037.5		0.000515997
1037		-3.98E-05
1036.5		0.000303318
1036		-0.000317299
1035.5		0.000131893
1035		0.000237878
1034.5		-0.000259842
1034		-0.000139225
1033.5		-0.00113675
1033		0.000238515
1032.5		-0.000212394
1032		0.000128612
1031.5		-0.0003816
1031		8.33E-05
1030.5		0.000157524
1030		0.000467737
1029.5		-6.38E-05
1029		0.000155937
1028.5		-5.00E-05
1028		4.57E-05
1027.5		0.000274833
1027		-0.000495141
1026.5		0.000834596
1026		0.000322959
1025.5		-7.31E-05
1025		0.00027227
1024.5		0.000282071
1024		0.000162315
1023.5		2.56E-05
1023		0.000442468
1022.5		-6.20E-05
1022		0.000203434
1021.5		0.000245077
1021		-7.51E-05
1020.5		0.000629372
1020		-0.000254383
1019.5		0.000433837
1019		9.92E-05
1018.5		-0.000105218
1018		-0.000214578
1017.5		0.000141278
1017		-4.03E-05
1016.5		0.000497846
1016		-0.000359782
1015.5		0.000521136
1015		0.000757202
1014.5		0.000802543
1014		-0.001038047
1013.5		0.000631969
1013		-0.000338875
1012.5		-8.11E-05
1012		-0.000554652
1011.5		9.95E-05
1011		0.000175886
1010.5		0.001004155
1010		0.000877436
1009.5		0.000139604
1009		-0.000270941
1008.5		0.000357121
1008		3.48E-05
1007.5		-0.000165027
1007		-0.0001035
1006.5		0.000283198
1006		0.00082735
1005.5		0.000697625
1005		0.000666324
1004.5		0.000480363
1004		3.66E-05
1003.5		0.000426713
1003		0.000177255
1002.5		0.000164863
1002		0.000315053
1001.5		-0.000300528
1001		-0.000136353
1000.5		-0.00033259
1000		0.000435553
999.5		0.000270997
999		-0.000485221
998.5		-0.000222429
998		0.001283305
997.5		0.000317933
997		0.000255235
996.5		-0.000125139
996		0.000200763
995.5		0.00041805
995		0.000442827
994.5		2.47E-05
994		0.000997552
993.5		0.000285944
993		0.00040636
992.5		0.000549995
992		0.000590178
991.5		-0.000448493
991		6.14E-05
990.5		-6.04E-05
990		-0.000721544
989.5		0.000120911
989		0.000322444
988.5		0.000979251
988		0.000411011
987.5		0.000281955
987		0.000118459
986.5		0.000941301
986		0.000930329
985.5		0.000971704
985		-0.000111094
984.5		0.000720156
984		0.000315748
983.5		0.000338519
983		0.000424136
982.5		0.000933445
982		-0.00038552
981.5		0.000521249
981		0.000125055
980.5		-0.000392555
980		7.04E-06
979.5		-7.93E-05
979		0.000773499
978.5		0.000768608
978		0.000113323
977.5		0.000412162
977		-6.43E-07
976.5		0.00018146
976		-0.000501626
975.5		-0.000166312
975		0.000138797
974.5		0.000775829
974		0.000515688
973.5		0.000247132
973		0.00037435
972.5		0.000167967
972		0.000697881
971.5		0.001198762
971		-6.27E-05
970.5		0.000549659
970		-4.68E-05
969.5		-0.000321751
969		0.001013518
968.5		-0.000361724
968		0.000239582
967.5		0.000119617
967		0.000206763
966.5		0.00046219
966		0.000406325
965.5		0.000381826
965		0.000748735
964.5		0.000719455
964		0.000360481
963.5		5.93E-05
963		-0.000507334
962.5		0.000780291
962		0.000554004
961.5		0.000266482
961		0.000155773
960.5		0.000588362
960		0.000866506
959.5		-3.75E-05
959		2.97E-05
958.5		2.92E-05
958		4.49E-05
957.5		0.000404595
957		0.000182302
956.5		0.000144994
956		0.000623129
955.5		-0.000425962
955		0.000660503
954.5		0.000494232
954		0.000527446
953.5		0.00136003
953		0.000425397
952.5		0.000381962
952		-5.17E-05
951.5		0.000858951
951		0.00050732
950.5		-0.000143443
950		0.000544006
949.5		-0.000477514
949		0.000236955
948.5		-0.000561699
948		0.00087823
947.5		2.40E-05
947		0.001032217
946.5		0.000414785
946		0.000736211
945.5		-0.000339635
945		5.63E-05
944.5		0.000438158
944		0.000382454
943.5		0.000622456
943		-0.000138271
942.5		0.000278615
942		0.000212572
941.5		0.000252784
941		-0.000197089
940.5		0.00104354
940		0.000247541
939.5		-0.000294382
939		0.000188661
938.5		0.000223031
938		-0.000160627
937.5		7.38E-05
937		0.000598182
936.5		0.000109441
936		-0.00032705
935.5		-0.000121302
935		4.67E-05
934.5		-0.000392466
934		0.000567255
933.5		0.000544385
933		2.02E-05
932.5		0.000345031
932		0.000572949
931.5		0.000309907
931		0.000355185
930.5		0.001116691
930		0.000800341
929.5		-4.99E-05
929		0.000413926
928.5		-0.000366526
928		0.000497844
927.5		0.000606667
927		0.00028789
926.5		-0.00029426
926		0.000167122
925.5		-6.40E-06
925		5.76E-05
924.5		0.000526352
924		4.59E-05
923.5		0.000289794
923		-0.000437493
922.5		0.000440518
922		0.000241643
921.5		0.000187439
921		0.000799392
920.5		0.00016044
920		-0.000294803
919.5		0.000810338
919		5.34E-05
918.5		6.32E-05
918		0.000885759
917.5		-0.000173893
917		0.000357674
916.5		0.000216601
916		0.000184086
915.5		0.00079141
915		0.000338945
914.5		-0.000358396
914		-0.000662866
913.5		7.01E-05
913		0.000205773
912.5		0.00068478
912		-0.000168318
911.5		0.001034329
911		0.000232105
910.5		0.000396367
910		-0.000132944
909.5		0.000895786
909		8.59E-05
908.5		0.000695535
908		-0.00036987
907.5		-9.40E-05
907		0.000429668
906.5		-6.28E-05
906		-6.68E-05
905.5		0.000768924
905		0.001057904
904.5		2.05E-05
904		0.000222859
903.5		0.000761006
903		0.00045036
902.5		0.000298112
902		-0.00035841
901.5		0.000472451
901		0.000489703
900.5		0.000223352
900		0.000710682
899.5		-4.81E-05
899		0.000978728
898.5		-0.000650957
898		-0.000203235
897.5		0.000174436
897		-6.31E-05
896.5		-0.00037219
896		0.000178356
895.5		-0.000112851
895		0.000466943
894.5		-0.000182023
894		0.000225703
893.5		-0.00027392
893		0.000705058
892.5		0.000870992
892		0.000476648
891.5		0.000284339
891		0.000139842
890.5		0.000620308
890		-4.45E-07
889.5		0.000302857
889		0.000147546
888.5		-0.000245898
888		-0.000525315
887.5		0.000259736
887		0.001009083
886.5		-0.000224732
886		0.000679059
885.5		6.32E-05
885		0.000299031
884.5		2.59E-05
884		0.000793398
883.5		0.000918719
883		0.000166687
882.5		0.000644703
882		0.000420022
881.5		0.000268733
881		-0.000730206
880.5		0.000395516
880		-0.000332313
879.5		-0.000124143
879		0.000311079
878.5		0.000656906
878		0.000477089
877.5		0.000288492
877		0.000384391
876.5		0.001105635
876		0.001536507
875.5		0.001060106
875		-0.000458727
874.5		5.72E-05
874		0.000428951
873.5		0.000114743
873		0.000112895
872.5		0.000706538
872		-0.000542896
871.5		0.001007594
871		-1.51E-05
870.5		0.000328471
870		0.000430994
869.5		0.000493824
869		0.000474536
868.5		0.000596233
868		0.000598073
867.5		-0.000515256
867		0.000516921
866.5		0.000505365
866		-4.17E-05
865.5		5.85E-05
865		0.000352117
864.5		0.000547401
864		3.38E-05
863.5		0.001043825
863		0.000959394
862.5		0.001143355
862		0.001652901
861.5		0.00220775
861		0.000717693
860.5		0.000979271
860		0.000735616
859.5		0.002190114
859		0.00181365
858.5		0.000972265
858		0.001480654
857.5		0.001356277
857		0.002213514
856.5		0.00157812
856		0.002048425
855.5		0.001664733
855		0.00267752
854.5		0.002623811
854		0.002454235
853.5		0.002316795
853		0.003988565
852.5		0.003460941
852		0.003910928
851.5		0.00481758
851		0.004122677
850.5		0.004412434
850		0.004921921
849.5		0.005375613
849		0.005816377
848.5		0.006400945
848		0.007086527
847.5		0.007717676
847		0.008470233
846.5		0.009451143
846		0.010161944
845.5		0.011345496
845		0.012767389
844.5		0.014021585
844		0.015540222
843.5		0.017307349
843		0.019451935
842.5		0.021702884
842		0.024216233
841.5		0.0270219
841		0.030618589
840.5		0.034203611
840		0.038728293
839.5		0.043671392
839		0.049369533
838.5		0.055587884
838		0.063151345
837.5		0.071868971
837		0.083302177
836.5		0.095029242
836		0.108855054
835.5		0.124214195
835		0.142926499
834.5		0.164672345
834		0.189842507
833.5		0.219269022
833		0.254015535
832.5		0.294116169
832		0.341737747
831.5		0.397830397
831		0.464215934
830.5		0.541737199
830		0.632408679
829.5		0.738590956
829		0.864949644
828.5		1.022884846
828		1.205508828
827.5		1.423073053
827		1.689392924
826.5		2.006697893
826		2.38190341
825.5		2.832867146
825		3.377613068
824.5		4.024521828
824		4.803491592
823.5		5.754730225
823		6.852470398
822.5		8.156086922
822		9.732368469
821.5		11.53878403
821		13.65539551
820.5		16.12858391
820		18.9171257
819.5		22.03401756
819		25.53806686
818.5		29.38070679
818		33.42020035
817.5		37.74081802
817		42.18455505
816.5		46.61226654
816		51.1425209
815.5		55.9538002
815		60.24993134
814.5		64.21868134
814		67.92086792
813.5		71.30930328
813		74.30155182
812.5		76.99578094
812		79.38430786
811.5		81.41960907
811		83.17156219
810.5		84.70155334
810		85.98664093
809.5		87.0471344
809		87.92771149
808.5		88.60690308
808		89.1877594
807.5		89.64871979
807		90.00610352
806.5		90.28275299
806		90.4852066
805.5		90.63375092
805		90.71910858
804.5		90.78862
804		90.84780884
803.5		90.8744278
803		90.88809204
802.5		90.90496063
802		90.94012451
801.5		90.95938873
801		91.00285339
800.5		91.03440094
800		91.08890533
799.5		91.16150665
799		91.25442505
798.5		91.33696747
798		91.44927216
797.5		91.5727005
797		91.68990326
796.5		91.82164001
796		91.95057678
795.5		92.09506226
795		92.22750854
794.5		92.35443878
794		92.50608826
793.5		92.63013458
793		92.75648499
792.5		92.86704254
792		92.96844482
791.5		93.06968689
791		93.16516876
790.5		93.25189972
790		93.28609467
789.5		93.35930634
789		93.42018127
788.5		93.44758606
788		93.49507904
787.5		93.52607727
787		93.54954529
786.5		93.57494354
786		93.59124756
785.5		93.61215973
785		93.62844086
784.5		93.65647125
784		93.65814209
783.5		93.68195343
783		93.69680786
782.5		93.71099854
782		93.72869873
781.5		93.75908661
781		93.79576111
780.5		93.82039642
780		93.83972168
779.5		93.89915466
779		93.93383026
778.5		93.98982239
778		94.01168823
777.5		94.06687927
777		94.11050415
776.5		94.13870239
776		94.20254517
775.5		94.23410034
775		94.28043365
774.5		94.32474518
774		94.36106873
773.5		94.39889526
773		94.44082642
772.5		94.4653244
772		94.49995422
771.5		94.52082825
771		94.55153656
770.5		94.57936859
770		94.58835602
769.5		94.58854675
769		94.60908508
768.5		94.61826324
768		94.62216949
767.5		94.60455322
767		94.61961365
766.5		94.59864044
766		94.60932159
765.5		94.59761047
765		94.59225464
764.5		94.55172729
764		94.56781006
763.5		94.54972839
763		94.52383423
762.5		94.52052307
762		94.50088501
761.5		94.49570465
761		94.46725464
760.5		94.45077515
760		94.43964386
759.5		94.40784454
759		94.39128876
758.5		94.37444305
758		94.34718323
757.5		94.33428955
757		94.31131744
756.5		94.29991913
756		94.29052734
755.5		94.27026367
755		94.25439453
754.5		94.22996521
754		94.20987701
753.5		94.19242859
753		94.18125916
752.5		94.14319611
752		94.13116455
751.5		94.11655426
751		94.08250427
750.5		94.03633118
750		94.034729
749.5		94.01151276
749		93.99263763
748.5		93.97023773
748		93.9417572
747.5		93.89139557
747		93.85224915
746.5		93.82282257
746		93.79399109
745.5		93.74995422
745		93.70028687
744.5		93.66599274
744		93.62464142
743.5		93.5759964
743		93.52721405
742.5		93.47402191
742		93.41726685
741.5		93.34366608
741		93.2804718
740.5		93.21285248
740		93.13162231
739.5		93.04665375
739		92.96420288
738.5		92.88404083
738		92.78579712
737.5		92.69248962
737		92.59437561
736.5		92.4932785
736		92.37363434
735.5		92.26559448
735		92.13887024
734.5		92.01235199
734		91.87802124
733.5		91.72994232
733		91.57761383
732.5		91.4381485
732		91.29029846
731.5		91.12359619
731		90.95793152
730.5		90.7871933
730		90.62121582
729.5		90.4320755
729		90.25144958
728.5		90.02174377
728		89.81851959
727.5		89.5977478
727		89.37343597
726.5		89.15661621
726		88.92150879
725.5		88.6774292
725		88.42974091
724.5		88.16633606
724		87.89305115
723.5		87.6197052
723		87.32718658
722.5		87.0205307
722		86.72176361
721.5		86.38217926
721		86.04320526
720.5		85.67515564
720		85.31228638
719.5		84.91675568
719		84.52038574
718.5		84.12335205
718		83.67584991
717.5		83.20692444
717		82.73728943
716.5		82.240242
716		81.7190094
715.5		81.17445374
715		80.62086487
714.5		80.06708527
714		79.4343338
713.5		78.81098175
713		78.16169739
712.5		77.47605133
712		76.78131104
711.5		76.06504822
711		75.34311676
710.5		74.54251099
710		73.74191284
709.5		72.90812683
709		72.05305481
708.5		71.18206024
708		70.26002502
707.5		69.21302032
707		68.24761963
706.5		67.22219849
706		66.1693573
705.5		65.09283447
705		64.00010681
704.5		62.83956146
704		61.67383957
703.5		60.47695923
703		59.24650574
702.5		57.93377686
702		56.63479614
701.5		55.31106567
701		53.92033005
700.5		52.54070663
700		51.157547
699.5		49.72381973
699		48.25854492
698.5		46.78627777
698		45.23207855
697.5		43.68443298
697		42.13224792
696.5		40.54215622
696		38.92552567
695.5		37.34311295
695		35.76318741
694.5		34.15074539
694		32.57551956
693.5		30.98190498
693		29.38764381
692.5		27.83155823
692		26.30917168
691.5		24.78573227
691		23.30367661
690.5		21.87512589
690		20.45687675
689.5		19.06157112
689		17.76671028
688.5		16.49059296
688		15.26385498
687.5		14.12687874
687		13.01310635
686.5		11.92968273
686		10.83631992
685.5		9.872088432
685		8.97708416
684.5		8.139291763
684		7.365254402
683.5		6.632361412
683		5.946858883
682.5		5.329603195
682		4.766036034
681.5		4.231271744
681		3.756343842
680.5		3.321912766
680		2.923514843
679.5		2.566131115
679		2.250702143
678.5		1.967865586
678		1.716951489
677.5		1.493126988
677		1.291488528
676.5		1.109671235
676		0.954212904
675.5		0.81868583
675		0.697434187
674.5		0.594018936
674		0.504207671
673.5		0.425764501
673		0.358940601
672.5		0.302689582
672		0.253688365
671.5		0.211958632
671		0.177470461
670.5		0.147627458
670		0.122274399
669.5		0.101618186
669		0.084265627
668.5		0.069295496
668		0.057251796
667.5		0.047084954
667		0.038586494
666.5		0.03180575
666		0.026119243
665.5		0.02141832
665		0.017412331
664.5		0.01430408
664		0.011466743
663.5		0.009318064
663		0.007593028
662.5		0.006206785
662		0.004956008
661.5		0.004036284
661		0.003408381
660.5		0.002719726
660		0.002204486
659.5		0.001938404
659		0.001560866
658.5		0.001243565
658		0.001161319
657.5		0.00090945
657		0.000665089
656.5		0.000650601
656		0.000493114
655.5		0.000366508
655		0.00035171
654.5		0.000435334
654		0.000247704
653.5		0.000171504
653		0.000128644
652.5		0.000147171
652		0.000153549
651.5		8.50E-05
651		9.75E-05
650.5		0.000158467
650		-3.51E-05
649.5		6.76E-06
649		-0.000100717
648.5		7.36E-06
648		0.000109867
647.5		9.94E-06
647		1.53E-05
646.5		7.53E-06
646		9.39E-05
645.5		1.05E-05
645		1.71E-05
644.5		7.72E-05
644		2.48E-05
643.5		8.94E-05
643		-1.32E-05
642.5		5.11E-05
642		0.000177776
641.5		4.52E-05
641		-3.54E-07
640.5		0.000112805
640		1.33E-05
639.5		-2.22E-05
639		-0.000102343
638.5		-7.30E-05
638		-8.80E-06
637.5		-0.000111
637		-7.84E-05
636.5		2.46E-05
636		-0.000123895
635.5		-9.29E-05
635		-8.46E-05
634.5		8.44E-05
634		-8.23E-05
633.5		-1.71E-05
633		-8.19E-06
632.5		1.24E-05
632		2.20E-05
631.5		0.000151377
631		-2.13E-06
630.5		-2.03E-05
630		0.000136905
629.5		0.000148645
629		7.09E-05
628.5		2.44E-05
628		0.000158988
627.5		9.29E-05
627		4.96E-05
626.5		4.20E-05
626		-1.11E-05
625.5		0.000110474
625		5.81E-06
624.5		-8.24E-05
624		-1.66E-05
623.5		-6.72E-05
623		-6.84E-05
622.5		-6.93E-05
622		-0.000140532
621.5		4.43E-05
621		-6.07E-05
620.5		-3.85E-05
620		7.13E-05
619.5		-9.02E-05
619		-7.16E-05
618.5		-4.53E-05
618		7.07E-05
617.5		-3.22E-05
617		4.18E-06
616.5		-2.93E-06
616		6.77E-05
615.5		-2.94E-05
615		6.99E-05
614.5		7.63E-05
614		6.46E-05
613.5		-2.04E-05
613		-2.41E-05
612.5		-4.06E-05
612		-1.27E-05
611.5		5.62E-05
611		9.90E-06
610.5		-7.63E-05
610		-1.82E-05
609.5		2.31E-05
609		-0.00012123
608.5		-0.000221701
608		-1.57E-05
607.5		-2.80E-05
607		-0.000156443
606.5		9.75E-05
606		5.94E-05
605.5		7.80E-05
605		-6.02E-05
604.5		-2.96E-05
604		9.66E-06
603.5		1.34E-05
603		1.47E-05
602.5		7.35E-05
602		0.000153603
601.5		-3.86E-05
601		1.67E-05
600.5		9.71E-05
600		0.00011229
599.5		-7.28E-05
599		6.18E-05
598.5		-4.11E-05
598		0.000117999
597.5		-8.23E-05
597		-5.08E-05
596.5		-5.54E-05
596		-8.50E-06
595.5		-0.000115159
595		-6.05E-05
594.5		-5.90E-05
594		-8.49E-05
593.5		-0.000170515
593		-3.82E-05
592.5		-3.39E-05
592		-9.79E-05
591.5		-1.72E-05
591		-4.98E-05
590.5		-4.09E-05
590		8.64E-05
589.5		6.47E-05
589		2.90E-05
588.5		-4.13E-05
588		-0.000103036
587.5		0.000132317
587		0.000139873
586.5		-2.50E-05
586		0.000107393
585.5		-8.90E-05
585		0.000156383
584.5		4.10E-05
584		2.85E-05
583.5		-6.59E-05
583		-6.12E-05
582.5		-2.34E-05
582		-0.000102827
581.5		-7.12E-05
581		-3.15E-06
580.5		1.59E-05
580		5.46E-05
579.5		9.94E-06
579		-6.56E-05
578.5		-1.77E-05
578		6.00E-05
577.5		9.64E-05
577		8.55E-06
576.5		5.39E-05
576		-2.84E-05
575.5		-2.24E-05
575		6.80E-05
574.5		7.71E-05
574		-8.19E-05
573.5		0.000100075
573		-1.32E-05
572.5		0.000138553
572		7.73E-05
571.5		4.44E-05
571		6.83E-05
570.5		-9.77E-06
570		-8.90E-06
569.5		9.19E-05
569		-2.08E-05
568.5		2.16E-05
568		0.000114585
567.5		0.000129024
567		0.000177474
566.5		-4.09E-05
566		3.64E-05
565.5		7.31E-05
565		5.08E-05
564.5		7.27E-05
564		-3.69E-05
563.5		0.000122028
563		3.39E-06
562.5		-1.85E-05
562		-1.29E-05
561.5		1.18E-05
561		-0.00014736
560.5		-4.08E-05
560		-1.98E-06
559.5		-0.000104395
559		-4.32E-05
558.5		-5.92E-05
558		-0.000175653
557.5		-7.12E-05
557		-4.46E-05
556.5		-5.20E-05
556		2.41E-05
555.5		-0.000105573
555		3.03E-05
554.5		2.38E-05
554		9.84E-06
553.5		-6.03E-06
553		0.000121863
552.5		-3.51E-05
552		0.00014357
551.5		4.13E-05
551		-6.05E-05
550.5		-0.000101448
550		2.72E-05
549.5		5.55E-07
549		-6.97E-06
548.5		-6.64E-05
548		1.66E-05
547.5		-4.85E-05
547		-2.39E-05
546.5		-3.58E-05
546		-0.000103192
545.5		-5.78E-05
545		-0.000223481
544.5		-0.000124479
544		-0.000172912
543.5		-4.94E-05
543		-8.88E-05
542.5		-0.000103031
542		-0.0001537
541.5		3.08E-05
541		4.87E-05
540.5		7.34E-05
540		7.69E-05
539.5		1.25E-05
539		-9.26E-06
538.5		4.32E-06
538		5.65E-05
537.5		-8.20E-05
537		4.29E-05
536.5		0.000101035
536		0.000111531
535.5		-1.85E-05
535		-0.000121129
534.5		9.14E-05
534		-1.98E-05
533.5		-0.00013588
533		-7.82E-05
532.5		-4.46E-08
532		8.83E-06
531.5		-3.04E-05
531		-0.000112323
530.5		-3.54E-05
530		-7.10E-05
529.5		0.000102987
529		4.99E-05
528.5		-1.20E-05
528		5.67E-05
527.5		-2.06E-05
527		-5.01E-05
526.5		0.000105879
526		5.62E-05
525.5		7.18E-05
525		-7.73E-05
524.5		9.03E-05
524		-6.06E-05
523.5		0.000169675
523		-3.37E-06
522.5		6.41E-05
522		-0.000112974
521.5		-3.30E-05
521		-6.52E-05
520.5		-3.98E-05
520		-1.71E-05
519.5		-6.58E-05
519		-0.000123275
518.5		-6.89E-05
518		-0.000139886
517.5		1.48E-05
517		-0.000144496
516.5		-4.15E-05
516		-0.00010457
515.5		-2.71E-05
515		2.03E-05
514.5		-7.87E-05
514		-2.01E-05
513.5		3.11E-05
513		-7.13E-06
512.5		3.06E-05
512		7.67E-05
511.5		2.90E-05
511		0.000112114
510.5		0.000118476
510		2.41E-06
509.5		7.57E-05
509		3.49E-05
508.5		4.61E-05
508		-0.000198971
507.5		-2.02E-05
507		-3.49E-07
506.5		-1.91E-05
506		8.35E-06
505.5		-0.000115255
505		-9.15E-06
504.5		-3.60E-05
504		-0.000149183
503.5		-6.70E-06
503		-8.17E-05
502.5		-2.66E-05
502		-0.000133517
501.5		2.27E-05
501		0.000138623
500.5		0.000103726
500		-7.97E-05
499.5		2.46E-05
499		0.000141332
498.5		0.000137562
498		5.79E-05
497.5		2.10E-05
497		6.50E-05
496.5		7.91E-05
496		3.58E-05
495.5		3.22E-05
495		3.67E-05
494.5		2.51E-05
494		7.13E-05
493.5		-1.30E-05
493		8.12E-05
492.5		-3.21E-06
492		-0.000156037
491.5		-6.69E-05
491		2.96E-05
490.5		-0.000114705
490		2.52E-05
489.5		-8.72E-05
489		-0.000109868
488.5		-0.000195306
488		2.37E-06
487.5		-8.35E-05
487		9.80E-05
486.5		-2.04E-06
486		2.59E-05
485.5		-9.72E-05
485		-5.63E-05
484.5		5.96E-05
484		7.88E-05
483.5		6.38E-05
483		0.000171542
482.5		5.45E-05
482		-1.56E-06
481.5		0.000120276
481		9.00E-05
480.5		4.00E-05
480		4.75E-06
479.5		-5.64E-05
479		-9.76E-05
478.5		5.64E-06
478		-9.38E-05
477.5		9.49E-05
477		-1.89E-05
476.5		4.13E-05
476		-0.000141673
475.5		7.96E-05
475		-7.12E-05
474.5		-4.29E-05
474		2.82E-05
473.5		-5.34E-05
473		-6.58E-05
472.5		-8.88E-05
472		-2.13E-05
471.5		-6.30E-05
471		-8.47E-05
470.5		0.000202597
470		9.83E-06
469.5		9.30E-05
469		9.68E-05
468.5		0.000131066
468		2.68E-05
467.5		7.63E-05
467		-0.00011708
466.5		3.93E-05
466		2.63E-05
465.5		-9.49E-05
465		2.95E-05
464.5		8.65E-05
464		-9.44E-05
463.5		1.67E-05
463		-4.28E-05
462.5		-0.000153629
462		0.000184953
461.5		-2.78E-05
461		2.42E-05
460.5		-2.05E-05
460		-1.65E-06
459.5		-4.79E-05
459		-8.35E-05
458.5		6.38E-05
458		1.53E-05
457.5		2.99E-05
457		6.99E-05
456.5		8.67E-05
456		0.00013591
455.5		9.29E-05
455		1.45E-05
454.5		0.000137891
454		0.000133601
453.5		2.73E-05
453		0.000188621
452.5		6.12E-05
452		5.09E-05
451.5		-3.17E-05
451		-7.59E-05
450.5		0.000117995
450		0.000109898
449.5		8.15E-05
449		-2.64E-05
448.5		5.62E-05
448		-7.11E-05
447.5		-0.000221027
447		-1.80E-05
446.5		8.35E-05
446		-6.08E-05
445.5		-2.47E-05
445		-5.95E-06
444.5		3.40E-05
444		-0.000169196
443.5		3.81E-05
443		2.44E-05
442.5		0.000126747
442		2.75E-05
441.5		-2.66E-05
441		1.48E-06
440.5		-7.70E-05
440		0.000139335
439.5		0.00019122
439		4.21E-05
438.5		5.06E-05
438		0.00010972
437.5		8.64E-06
437		-4.93E-05
436.5		0.000102867
436		-2.00E-05
435.5		6.82E-05
435		7.79E-06
434.5		3.06E-05
434		-0.000112733
433.5		-0.000214345
433		-4.94E-05
432.5		3.29E-05
432		4.47E-06
431.5		-4.34E-05
431		5.56E-05
430.5		3.25E-05
430		-0.000214351
429.5		-1.60E-05
429		0.000165523
428.5		8.50E-05
428		2.26E-05
427.5		0.000125611
427		9.35E-05
426.5		0.000240833
426		1.39E-06
425.5		-9.39E-06
425		4.10E-05
424.5		0.000147478
424		6.89E-05
423.5		-6.70E-05
423		0.000141003
422.5		-2.46E-05
422		-0.000196536
421.5		9.03E-05
421		0.000100905
420.5		-6.15E-06
420		-8.61E-06
419.5		0.000101424
419		-7.46E-05
418.5		4.40E-05
418		-7.23E-05
417.5		-5.50E-05
417		-2.31E-05
416.5		-2.55E-05
416		-8.56E-05
415.5		2.03E-05
415		8.38E-05
414.5		-1.36E-05
414		5.18E-05
413.5		6.67E-05
413		-1.63E-06
412.5		4.98E-05
412		0.000103477
411.5		5.28E-05
411		4.49E-05
410.5		0.00011439
410		-1.39E-05
409.5		-8.02E-05
409		0.000174235
408.5		-9.62E-05
408		-3.02E-05
407.5		1.39E-05
407		-0.000156228
406.5		-6.37E-05
406		-4.91E-06
405.5		-0.000213191
405		-4.86E-05
404.5		0.000121259
404		-2.71E-05
403.5		-6.68E-05
403		-1.15E-05
402.5		2.17E-05
402		6.47E-05
401.5		-1.78E-05
401		0.000129661
400.5		-0.000171645
400		0.000113103
399.5		7.74E-05
399		0.000110088
398.5		4.07E-05
398		0.000175124
397.5		-5.33E-05
397		0.000158104
396.5		-7.85E-05
396		0.000265359
395.5		3.42E-05
395		8.64E-05
394.5		9.20E-05
394		-0.000119539
393.5		-3.58E-05
393		-2.89E-05
392.5		2.71E-05
392		-2.42E-06
391.5		-1.82E-05
391		-9.87E-05
390.5		-0.000105205
390		-2.88E-05
389.5		-1.82E-06
389		6.48E-06
388.5		-5.76E-05
388		2.27E-05
387.5		-2.20E-05
387		1.07E-05
386.5		7.45E-05
386		8.11E-05
385.5		-7.90E-06
385		0.000196626
384.5		2.98E-05
384		4.29E-05
383.5		8.52E-05
383		5.12E-05
382.5		1.17E-06
382		7.16E-06
381.5		7.96E-05
381		9.75E-05
380.5		-0.000100585
380		0.000113751
379.5		6.50E-05
379		-0.000122163
378.5		-6.96E-05
378		-2.55E-05
377.5		-0.000118292
377		-0.000124381
376.5		-2.41E-05
376		-0.000145888
375.5		3.80E-05
375		3.54E-05
374.5		1.74E-05
374		8.51E-05
373.5		3.68E-05
373		-0.000108556
372.5		0.000104016
372		-4.37E-06
371.5		8.17E-05
371		-2.26E-05
370.5		0.000114655
370		0.000101007
369.5		2.66E-05
369		7.35E-05
368.5		5.02E-06
368		8.33E-05
367.5		-8.65E-05
367		-5.68E-05
366.5		8.66E-05
366		-7.14E-05
365.5		-0.000140967
365		1.09E-06
364.5		3.09E-05
364		4.05E-05
363.5		8.37E-05
363		0.000108624
362.5		-0.000188799
362		7.33E-05
361.5		0.000179355
361		0.000155836
360.5		0.000104553
360		0.000115634
359.5		9.81E-05
359		0.000111347
358.5		1.70E-05
358		8.53E-05
357.5		7.88E-05
357		6.66E-05
356.5		1.65E-05
356		4.27E-05
355.5		1.40E-05
355		9.31E-05
354.5		9.40E-06
354		4.02E-05
353.5		-2.72E-05
353		5.97E-05
352.5		-3.48E-05
352		-0.000152138
351.5		4.42E-05
351		9.76E-05
350.5		4.35E-05
350		-0.000114131
349.5		1.82E-05
349		1.85E-05
348.5		-3.10E-05
348		0.00016552
347.5		0.000119664
347		-0.000105022
346.5		-1.61E-05
346		-0.000253954
345.5		3.81E-06
345		-1.79E-05
344.5		-3.61E-05
344		8.23E-05
343.5		-0.000198282
343		1.87E-05
342.5		-0.000136844
342		-0.000247917
341.5		1.98E-05
341		-2.58E-05
340.5		-4.78E-05
340		4.69E-06
339.5		0.000142646
339		0.000246791
338.5		-9.37E-05
338		-8.39E-05
337.5		-5.06E-05
337		4.84E-05
336.5		0.000185929
336		-0.000107543
335.5		0.000171072
335		7.73E-05
334.5		-5.43E-05
334		1.94E-05
333.5		-0.000101878
333		-8.98E-05
332.5		4.66E-05
332		8.64E-05
331.5		8.32E-06
331		-5.73E-06
330.5		9.34E-05
330		2.45E-05
329.5		0.000203593
329		9.42E-06
328.5		-2.21E-05
328		8.10E-05
327.5		5.26E-05
327		-3.57E-05
326.5		5.90E-05
326		-4.04E-05
325.5		-4.59E-05
325		-1.23E-05
324.5		-1.32E-05
324		2.78E-05
323.5		4.16E-05
323		-8.79E-05
322.5		-3.15E-05
322		1.22E-05
321.5		-1.91E-05
321		5.09E-06
320.5		4.14E-05
320		-8.84E-05
319.5		-6.52E-05
319		3.68E-05
318.5		7.10E-05
318		0.000177521
317.5		6.77E-06
317		0.000139119
316.5		8.68E-05
316		4.07E-05
315.5		-7.90E-05
315		0.0001506
314.5		0.000198461
314		1.72E-05
313.5		0.00015438
313		4.53E-05
312.5		3.06E-05
312		8.31E-05
311.5		2.10E-06
311		-7.57E-06
310.5		7.01E-05
310		-8.66E-05
309.5		-0.000227147
309		-0.0001401
308.5		5.72E-05
308		-0.000130737
307.5		-3.10E-05
307		6.89E-05
306.5		5.53E-05
306		-4.43E-05
305.5		-4.28E-05
305		-3.86E-05
304.5		0.00014407
304		-1.43E-05
303.5		7.63E-05
303		0.000103668
302.5		2.86E-05
302		3.90E-05
301.5		0.000205087
301		0.000162005
300.5		1.58E-05
300		-0.000165473
